* This data was exported from the Dayton Audio Test System: DATS
*
* Piston Diameter = 25.4 mm
* f(s)= 100.4 Hz
* R(e)= 5.344 Ohms
* Z(max)= 60.55 Ohms
* Q(ms)= 11.54
* Q(es)= 1.117
* Q(ts)= 1.019
* V(as)= 0.006254 liters     (0.00022 cubic feet)
* L(e)= 0.6198 mH
* n(0)= 0.000541 %
* SPL= 59.43 1W/1m
* M(ms)= 14.48 grams
* C(ms)= 0.173 mm/N
* BL= 6.611 
* K(r)= 0.03647 
* X(r)= 0.5586 
* K(i)= 0.009742 
* X(i)= 0.715 
*
*
Freq            Impedance       Phase
1.029    	5.360    	0.979    
1.059    	5.360    	0.979    
1.091    	5.360    	0.979    
1.122    	5.360    	0.979    
1.155    	5.360    	0.979    
1.189    	5.360    	0.979    
1.224    	5.360    	0.979    
1.260    	5.360    	0.979    
1.297    	5.360    	0.979    
1.335    	5.359    	0.996    
1.374    	5.359    	0.996    
1.414    	5.359    	0.996    
1.456    	5.359    	0.996    
1.498    	5.359    	0.996    
1.542    	5.359    	0.996    
1.587    	5.359    	0.996    
1.634    	5.359    	0.996    
1.682    	5.354    	1.056    
1.731    	5.354    	1.056    
1.782    	5.354    	1.056    
1.834    	5.354    	1.056    
1.888    	5.354    	1.056    
1.943    	5.354    	1.056    
2.000    	5.352    	1.128    
2.059    	5.352    	1.128    
2.119    	5.352    	1.128    
2.181    	5.352    	1.128    
2.245    	5.352    	1.128    
2.311    	5.352    	1.128    
2.378    	5.353    	1.220    
2.448    	5.353    	1.220    
2.520    	5.353    	1.220    
2.594    	5.353    	1.220    
2.670    	5.357    	1.373    
2.748    	5.357    	1.373    
2.828    	5.357    	1.373    
2.911    	5.357    	1.373    
2.997    	5.355    	1.582    
3.084    	5.355    	1.582    
3.175    	5.355    	1.582    
3.268    	5.355    	1.582    
3.364    	5.359    	1.816    
3.462    	5.359    	1.816    
3.564    	5.359    	1.816    
3.668    	5.360    	2.058    
3.775    	5.360    	2.058    
3.886    	5.360    	2.058    
4.000    	5.368    	2.301    
4.117    	5.368    	2.301    
4.238    	5.368    	2.301    
4.362    	5.352    	2.545    
4.490    	5.352    	2.545    
4.621    	5.352    	2.545    
4.757    	5.335    	2.776    
4.896    	5.335    	2.776    
5.040    	5.333    	2.986    
5.187    	5.333    	2.986    
5.339    	5.341    	3.186    
5.496    	5.341    	3.186    
5.657    	5.351    	3.374    
5.823    	5.351    	3.374    
5.993    	5.360    	3.542    
6.169    	5.360    	3.542    
6.350    	5.375    	3.704    
6.536    	5.375    	3.704    
6.727    	5.392    	3.878    
6.924    	5.392    	3.878    
7.127    	5.403    	4.066    
7.336    	5.410    	4.254    
7.551    	5.410    	4.254    
7.772    	5.411    	4.440    
8.000    	5.403    	4.636    
8.234    	5.403    	4.636    
8.476    	5.392    	4.849    
8.724    	5.386    	5.068    
8.980    	5.387    	5.277    
9.243    	5.387    	5.277    
9.514    	5.396    	5.477    
9.792    	5.409    	5.670    
10.079    	5.418    	5.855    
10.375    	5.423    	6.029    
10.679    	5.430    	6.187    
10.992    	5.438    	6.340    
11.314    	5.440    	6.502    
11.645    	5.439    	6.676    
11.986    	5.437    	6.861    
12.338    	5.437    	7.060    
12.699    	5.435    	7.279    
13.071    	5.433    	7.516    
13.454    	5.435    	7.754    
13.849    	5.442    	7.976    
14.254    	5.453    	8.177    
14.672    	5.468    	8.444    
15.102    	5.481    	8.689    
15.545    	5.488    	8.840    
16.000    	5.489    	9.071    
16.469    	5.485    	9.340    
16.951    	5.485    	9.646    
17.448    	5.489    	9.972    
17.959    	5.495    	10.318    
18.486    	5.506    	10.644    
19.027    	5.524    	10.941    
19.585    	5.537    	11.319    
20.159    	5.546    	11.570    
20.749    	5.556    	11.819    
21.357    	5.567    	12.175    
21.983    	5.575    	12.558    
22.627    	5.581    	12.991    
23.290    	5.590    	13.428    
23.973    	5.605    	13.865    
24.675    	5.624    	14.282    
25.398    	5.628    	14.689    
26.143    	5.652    	15.099    
26.909    	5.682    	15.574    
27.697    	5.696    	16.043    
28.509    	5.708    	16.420    
29.344    	5.723    	16.922    
30.204    	5.745    	17.573    
31.089    	5.774    	18.135    
32.000    	5.807    	18.732    
32.938    	5.842    	19.314    
33.903    	5.879    	19.907    
34.896    	5.907    	20.516    
35.919    	5.934    	21.166    
36.971    	5.961    	21.872    
38.055    	6.000    	22.636    
39.170    	6.061    	23.475    
40.317    	6.123    	24.201    
41.499    	6.176    	24.859    
42.715    	6.214    	25.494    
43.967    	6.258    	26.419    
45.255    	6.335    	27.503    
46.581    	6.427    	28.568    
47.946    	6.526    	29.508    
49.351    	6.611    	30.250    
50.797    	6.709    	31.251    
52.285    	6.799    	32.511    
53.817    	6.919    	34.001    
55.394    	7.107    	35.578    
57.018    	7.297    	36.557    
58.688    	7.470    	37.391    
60.408    	7.661    	38.557    
62.178    	7.859    	40.097    
64.000    	8.085    	41.936    
65.875    	8.441    	43.985    
67.806    	8.883    	45.603    
69.792    	9.370    	46.915    
71.838    	9.850    	48.056    
73.943    	10.319    	49.664    
76.109    	10.994    	52.043    
78.339    	12.023    	54.943    
80.635    	13.569    	57.741    
82.998    	15.637    	59.401    
85.430    	18.400    	59.708    
87.933    	22.352    	57.928    
90.510    	27.555    	54.228    
93.162    	34.511    	47.975    
95.892    	45.617    	35.183    
98.701    	57.162    	13.420    
101.594    	57.915    	-17.043    
104.571    	43.406    	-43.035    
107.635    	30.113    	-52.271    
110.789    	22.850    	-54.027    
114.035    	18.496    	-54.350    
117.377    	15.730    	-53.719    
120.816    	13.662    	-52.585    
124.356    	12.075    	-50.487    
128.000    	11.054    	-47.476    
131.751    	10.191    	-45.314    
135.611    	9.559    	-43.564    
139.585    	8.945    	-42.124    
143.675    	8.395    	-40.962    
147.885    	7.991    	-39.482    
152.219    	7.878    	-36.402    
156.679    	7.766    	-33.676    
161.270    	7.389    	-31.897    
165.995    	7.301    	-29.699    
170.860    	7.174    	-29.434    
175.866    	6.768    	-26.987    
181.019    	6.680    	-23.072    
186.324    	6.595    	-18.078    
191.783    	6.422    	-18.589    
197.403    	6.684    	-22.309    
203.187    	6.769    	-19.883    
209.141    	6.594    	-19.910    
215.269    	6.541    	-20.533    
221.577    	6.606    	-18.169    
228.070    	6.371    	-15.873    
234.753    	6.143    	-14.858    
241.632    	5.914    	-13.513    
248.712    	5.788    	-11.993    
256.000    	5.833    	-11.667    
263.501    	5.746    	-9.580    
271.223    	5.770    	-9.046    
279.170    	5.819    	-7.328    
287.350    	5.756    	-5.567    
295.770    	5.721    	-4.899    
304.437    	5.714    	-2.926    
313.358    	5.722    	-1.490    
322.540    	5.712    	-0.700    
331.991    	5.794    	-0.215    
341.719    	5.758    	0.957    
351.732    	5.731    	2.485    
362.039    	5.768    	3.802    
372.647    	5.829    	4.720    
383.567    	5.774    	5.331    
394.806    	5.821    	6.694    
406.375    	5.912    	8.246    
418.282    	6.080    	9.682    
430.539    	6.347    	9.541    
443.155    	6.467    	8.261    
456.140    	6.125    	8.678    
469.506    	6.043    	10.282    
483.264    	6.058    	11.421    
497.424    	6.097    	12.523    
512.000    	6.157    	13.607    
527.003    	6.240    	14.813    
542.445    	6.359    	15.776    
558.340    	6.531    	15.828    
574.701    	6.485    	15.044    
591.541    	6.394    	16.026    
608.874    	6.419    	17.226    
626.715    	6.460    	18.268    
645.080    	6.517    	19.177    
663.982    	6.575    	20.053    
683.438    	6.638    	20.884    
703.464    	6.706    	21.687    
724.077    	6.775    	22.494    
745.294    	6.850    	23.236    
767.133    	6.920    	23.996    
789.612    	6.996    	24.763    
812.749    	7.080    	25.507    
836.565    	7.163    	26.253    
861.078    	7.252    	26.973    
886.309    	7.348    	27.689    
912.280    	7.460    	28.342    
939.012    	7.549    	28.757    
966.527    	7.619    	29.423    
994.849    	7.707    	30.148    
1024.000    	7.810    	30.878    
1054.005    	7.923    	31.524    
1084.890    	8.043    	32.154    
1116.680    	8.155    	32.680    
1149.401    	8.262    	33.238    
1183.081    	8.369    	33.834    
1217.748    	8.488    	34.506    
1253.431    	8.624    	35.101    
1290.159    	8.753    	35.584    
1327.964    	8.874    	36.223    
1366.876    	9.026    	36.692    
1406.929    	9.147    	37.249    
1448.155    	9.309    	37.718    
1490.589    	9.439    	38.092    
1534.266    	9.551    	38.544    
1579.224    	9.677    	39.217    
1625.499    	9.833    	39.857    
1673.129    	9.998    	40.488    
1722.156    	10.169    	40.996    
1772.619    	10.344    	41.495    
1824.561    	10.522    	42.011    
1878.024    	10.706    	42.503    
1933.055    	10.887    	42.981    
1989.697    	11.080    	43.451    
2048.000    	11.274    	43.898    
2108.011    	11.478    	44.327    
2169.780    	11.686    	44.745    
2233.360    	11.898    	45.181    
2298.802    	12.113    	45.573    
2366.162    	12.334    	45.973    
2435.496    	12.559    	46.383    
2506.862    	12.793    	46.786    
2580.318    	13.032    	47.147    
2655.927    	13.282    	47.532    
2733.752    	13.537    	47.895    
2813.857    	13.798    	48.263    
2896.309    	14.070    	48.641    
2981.178    	14.364    	49.045    
3068.533    	14.674    	49.419    
3158.448    	15.027    	49.838    
3250.997    	15.606    	50.151    
3346.259    	15.929    	47.793    
3444.312    	15.562    	48.573    
3545.238    	15.893    	49.460    
3649.121    	16.114    	49.834    
3756.049    	16.457    	50.536    
3866.109    	16.847    	51.001    
3979.395    	17.339    	51.376    
4096.000    	17.851    	50.205    
4216.022    	17.602    	50.357    
4339.561    	17.945    	51.390    
4466.720    	18.334    	51.852    
4597.605    	18.709    	52.156    
4732.325    	19.091    	52.434    
4870.992    	19.470    	52.697    
5013.723    	19.855    	52.925    
5160.637    	20.249    	53.134    
5311.855    	20.648    	53.340    
5467.504    	21.053    	53.547    
5627.714    	21.470    	53.728    
5792.619    	21.878    	53.892    
5962.355    	22.304    	54.085    
6137.066    	22.736    	54.264    
6316.896    	23.181    	54.433    
6501.995    	23.632    	54.585    
6692.518    	24.090    	54.748    
6888.623    	24.561    	54.918    
7090.476    	25.041    	55.072    
7298.242    	25.531    	55.220    
7512.097    	26.034    	55.344    
7732.218    	26.538    	55.494    
7958.790    	27.054    	55.624    
8192.000    	27.589    	55.749    
8432.044    	28.125    	55.886    
8679.122    	28.667    	56.008    
8933.439    	29.238    	56.142    
9195.209    	29.822    	56.210    
9464.649    	30.381    	56.299    
9741.985    	30.960    	56.430    
10027.447    	31.553    	56.558    
10321.273    	32.178    	56.685    
10623.710    	32.806    	56.793    
10935.008    	33.449    	56.900    
11255.428    	34.104    	57.009    
11585.238    	34.788    	57.106    
11924.711    	35.488    	57.171    
12274.132    	36.152    	57.209    
12633.791    	36.823    	57.336    
13003.989    	37.542    	57.451    
13385.035    	38.290    	57.568    
13777.247    	39.044    	57.649    
14180.951    	39.816    	57.736    
14596.485    	40.605    	57.820    
15024.194    	41.404    	57.881    
15464.437    	42.214    	57.956    
15917.579    	43.040    	58.009    
16384.000    	43.874    	58.100    
16864.088    	44.731    	58.176    
17358.243    	45.619    	58.264    
17866.879    	46.500    	58.326    
18390.418    	47.375    	58.379    
18929.299    	48.253    	58.457    
19483.969    	49.153    	58.519    
20054.893    	50.055    	58.606    
20642.546    	50.914    	58.712    
